#------------------------------------------------------------------------------
#$Date: 2018-02-06 16:25:20 +0200 (Tue, 06 Feb 2018) $
#$Revision: 428 $
#$URL: svn://172.16.1.102/rod/cif/3/50/02/3500212.rod $
#------------------------------------------------------------------------------
#
# This file is available in the Raman Open Database (ROD),
# http://solsa.crystallography.net/rod/
#
# All data on this site have been placed in the public domain by the
# contributors.
#
data_3500212
loop_
_publ_author_name
'El Mendili, Y'
_publ_section_title
;
 Raman spectrum of commercial V2O5
;
_journal_name_full               'Personal communication to ROD'
_journal_year                    2018
_chemical_compound_source        'commercial powder Alfa Aesar 99%'
_chemical_formula_structural     'O5 V2'
_chemical_formula_sum            'O5 V2'
_chemical_name_mineral           Shcherbianite
_chemical_name_systematic        'vanadium oxide'
_space_group_IT_number           31
_symmetry_cell_setting           orthorhombic
_symmetry_space_group_name_Hall  'P 2ac -2'
_symmetry_space_group_name_H-M   'P m n 21'
_cell_angle_alpha                90
_cell_angle_beta                 90
_cell_angle_gamma                90
_cell_formula_units_Z            2
_cell_length_a                   11.503
_cell_length_b                   4.369
_cell_length_c                   3.557
_raman_determination_method      experimental
_[local]_chemical_compound_color UNKNOWN
_[local]_chemical_compound_state UNKNOWN
_raman_measurement_device.location 'UNKNOWN'
_raman_measurement_device.company Thermo Scientific
_raman_measurement_device.model  Nicolet Almega XR
_raman_measurement_device.optics_type microscope
_raman_measurement_device.microscope_system dispersive
_raman_measurement_device.microscope_objective_magnification 50
_raman_measurement_device.microscope_numerical_aperture 0.5
_raman_measurement_device.excitation_laser_type helium-neon
_raman_measurement_device.excitation_laser_wavelength 780
_raman_measurement_device.configuration simple
_raman_measurement_device.resolution 4
_raman_measurement_device.power_on_sample 12
_raman_measurement_device.direction_polarization unoriented
_raman_measurement_device.spot_size 1
_raman_measurement_device.diffraction_grating 400
_raman_measurement.environment   Air
_raman_measurement.environment_details
;
 The sample was measured in air.
;
_raman_measurement.temperature   300
_raman_measurement.pressure      100
_raman_measurement.background_subtraction no
_raman_measurement.background_subtraction_details
;
 No background subtraction method was applied.
;
_raman_measurement.baseline_correction no
_raman_measurement.baseline_correction_details
;
 No baseline correction method was applied.
;
_raman_measurement.integration_time 10
_raman_measurement.datetime_initiated 2018-01-15
_rod_data_source.file            V2O5.rod
_rod_data_source.block           3500020
_rod_database.code               3500212
loop_
_raman_complementary.id
_raman_complementary.method
1 DRX
loop_
_raman_measurement_device_calibration.id
_raman_measurement_device_calibration.standard
1 silicon_wafer
loop_
_rod_related_entry.id
_rod_related_entry.code
_rod_related_entry.database
_rod_related_entry.uri
_rod_related_entry.description
1 1011291 COD http://www.crystallography.net/cod/1011291.html
;
no XRD analysis data.
;
loop_
_raman_spectrum.raman_shift
_raman_spectrum.intensity
102.279 601.889
104.522 734.333
106.766 960.111
109.007 1773.11
111.248 4004.78
113.489 5527.44
115.728 4010.11
117.967 1894
120.207 1300.11
122.445 1184.78
124.682 1217.44
126.919 1268.89
129.155 1353.78
131.39 1505.33
133.624 1676.22
135.858 1901.56
138.09 2261
140.323 2781.56
142.555 3603.56
144.786 5077.22
147.017 7971
149.247 14604.1
151.475 29764
153.704 49744.7
155.932 54606.1
158.158 39107.8
160.385 20274.6
162.612 9927.78
164.836 5496.67
167.061 3502
169.284 2436.33
171.508 1852.44
173.729 1451.56
175.952 1195.44
178.172 1006.44
180.394 896.444
182.613 819.556
184.833 756.667
187.051 730
189.268 721.778
191.486 702.778
193.702 730.222
195.917 772.667
198.134 919.556
200.348 1200.89
202.561 1823.67
204.774 2841.78
206.986 3547
209.198 3282.67
211.409 2394.89
213.621 1562.89
215.83 1047.78
218.039 782.667
220.248 615.222
222.456 564.111
224.663 496.667
226.868 461.556
229.074 450.667
231.279 446.778
233.484 440.111
235.688 461.667
237.892 481.111
240.093 503.556
242.295 478.556
244.497 445.111
246.698 426.556
248.897 409.778
251.096 416.111
253.295 422
255.492 431.111
257.69 440.889
259.886 451.111
262.083 471.222
264.277 494.222
266.473 514.222
268.666 543.778
270.86 588.889
273.052 640.778
275.245 714.889
277.436 825.111
279.626 946.111
281.816 1173
284.006 1550.56
286.194 2270.33
288.382 3781.22
290.569 6907.11
292.757 10955.3
294.943 13075.4
297.128 11251.2
299.313 7501.56
301.497 4356.56
303.68 2804.33
305.863 2201.89
308.045 2157.56
310.227 2502.11
312.408 3026.89
314.588 3276
316.768 3023.33
318.947 2467.44
321.125 1953.56
323.302 1548.44
325.479 1220.78
327.656 1000
329.832 881.222
332.007 761.889
334.181 704.444
336.355 633.333
338.528 598.667
340.7 577
342.872 546.333
345.043 536.778
347.214 531
349.383 491.556
351.553 474.667
353.721 473.778
355.889 465.222
358.056 450.667
360.224 459.556
362.389 465.222
364.554 485
366.72 475.222
368.883 459.778
371.046 436.556
373.209 429.444
375.372 446.444
377.533 449
379.694 451.778
381.854 444.889
384.013 459.778
386.172 473
388.33 499.444
390.487 513.555
392.644 540.111
394.801 563.667
396.957 603.222
399.112 643.556
401.266 727.444
403.42 841.444
405.574 1006.89
407.726 1312.78
409.878 1826.78
412.029 2565.22
414.179 3268.44
416.33 3439
418.48 2881
420.627 2091.67
422.776 1490.11
424.922 1120.67
427.07 923.889
429.216 771.222
431.361 693.333
433.507 653.667
435.65 616
437.794 598.111
439.937 577.333
442.078 574.778
444.221 582.111
446.361 573.778
448.503 590.444
450.642 607.444
452.781 613
454.919 630.667
457.058 647.667
459.195 690.444
461.331 720
463.467 777.778
465.602 831.778
467.737 893.111
469.871 993.667
472.004 1070.11
474.137 1248.78
476.269 1433.78
478.401 1689.44
480.532 2002.89
482.662 2330.11
484.792 2683.44
486.921 3087.11
489.05 3440.44
491.178 3621.44
493.304 3642.89
495.431 3462.22
497.557 3145
499.682 2759.44
501.806 2388.89
503.931 2091
506.054 1881
508.176 1718.44
510.299 1590.33
512.42 1548.56
514.541 1500.78
516.661 1516.78
518.781 1504.33
520.9 1562.22
523.019 1638.11
525.136 1771.56
527.253 1934.22
529.37 2171.78
531.485 2488.56
533.6 2819.44
535.714 3101.56
537.83 3227.67
539.943 3161
542.055 2870.89
544.167 2559.11
546.278 2182.56
548.389 1857.33
550.499 1588.11
552.609 1423.22
554.718 1242.11
556.826 1121.56
558.934 1053.44
561.041 1005.89
563.148 938.333
565.254 891.556
567.359 842.444
569.464 801.333
571.569 775.667
573.671 761.889
575.774 731.444
577.877 722.556
579.977 677.667
582.079 676.444
584.18 665.667
586.279 638.889
588.378 637.111
590.476 627.333
592.574 615.333
594.671 601.111
596.768 608.556
598.864 610.111
600.96 591.444
603.054 598
605.148 583.222
607.242 614.556
609.335 619.555
611.427 612.111
613.519 615.889
615.61 634.333
617.7 627.556
619.79 618
621.879 632.556
623.968 617.445
626.055 615.222
628.144 609.889
630.231 612
632.317 611.222
634.403 615.222
636.486 621.333
638.571 650.445
640.655 652.556
642.738 672.889
644.821 692.111
646.903 730
648.984 757.333
651.064 790.667
653.144 818.556
655.224 856.111
657.302 890.333
659.381 942.667
661.459 960.556
663.535 979
665.612 1022.67
667.687 1039.11
669.763 1042.44
671.837 1044.78
673.912 1069.22
675.985 1090.89
678.058 1128.22
680.13 1170.44
682.201 1236.78
684.273 1318.44
686.343 1419.11
688.412 1542.89
690.481 1724
692.551 1960.44
694.618 2209.78
696.686 2549.89
698.752 3022.33
700.818 3567
702.883 4233.33
704.948 5063.67
707.013 5851.56
709.076 6592.22
711.139 7029
713.202 7036.67
715.264 6564.67
717.326 5792.44
719.385 4899.67
721.445 4067.78
723.505 3372.11
725.564 2797.44
727.623 2328
729.68 1944.44
731.737 1695.89
733.794 1487
735.849 1319.33
737.905 1171
739.959 1057
742.014 957.444
744.067 880.444
746.12 829.333
748.172 781.667
750.224 726.333
752.275 687.667
754.325 652.444
756.376 615.778
758.424 594.111
760.473 569.333
762.521 542
764.569 523.667
766.616 499.111
768.662 480.444
770.707 467
772.752 455.444
774.797 451.333
776.841 439.444
778.884 420.333
780.927 427
782.969 416.333
785.01 426.444
787.051 409.333
789.092 423.333
791.132 424.556
793.171 430.889
795.209 441.444
797.247 442.556
799.285 443.222
801.322 453.111
803.357 458.444
805.393 462.444
807.428 466.778
809.463 465.667
811.497 456.444
813.529 456.333
815.563 451.111
817.594 440.556
819.625 422.333
821.657 427.444
823.687 413.556
825.717 403
827.746 381.222
829.774 372.333
831.801 362.778
833.83 354.667
835.856 356.444
837.882 341.889
839.908 341.222
841.932 340.333
843.957 330.333
845.982 341.444
848.005 332
850.027 336.333
852.05 335.556
854.07 322.444
856.091 336.111
858.111 326.889
860.131 327.444
862.15 319.556
864.169 326.111
866.187 315.111
868.204 317.889
870.221 320.889
872.238 318
874.252 312.444
876.268 304.333
878.283 300.333
880.296 297.111
882.31 296.667
884.322 304.556
886.335 289.778
888.345 292.667
890.356 289.444
892.367 286.333
894.376 298
896.386 278.889
898.395 280.444
900.402 279.556
902.409 283.111
904.417 278.333
906.423 274.889
908.429 276.444
910.434 277.222
912.438 278.778
914.442 275
916.445 274.556
918.448 284.889
920.451 281.222
922.452 286.556
924.453 284.222
926.454 298.222
928.454 296
930.454 295.778
932.451 296.111
934.45 301.889
936.448 302.667
938.445 314.556
940.441 314.667
942.437 327.111
944.433 322.333
946.427 329.889
948.422 355.556
950.415 345.222
952.408 360.111
954.4 376.667
956.393 386.111
958.383 386.778
960.374 397.444
962.365 401.667
964.354 406.889
966.342 411.444
968.332 417.222
970.319 425.333
972.306 428.444
974.293 422.222
976.279 405.444
978.265 401.111
980.25 393.333
982.234 390.556
984.218 392.667
986.202 403.556
988.184 424.444
990.166 438.222
992.147 471.111
994.128 520.556
996.109 646.111
998.089 945.556
1000.07 1937.67
1002.05 4616
1004.02 8209.44
1006 8993.67
1007.98 5845.56
1009.96 2954.33
1011.93 1563.67
1013.91 1038.78
1015.88 822.111
1017.86 716.444
1019.83 646.333
1021.8 634.222
1023.77 601.556
1025.75 580.556
1027.72 576.555
1029.69 570
1031.66 556.778
1033.63 560.555
1035.6 569.889
1037.57 555.889
1039.53 555.333
1041.5 558
1043.47 542.444
1045.43 522.333
1047.4 529
1049.36 504.222
1051.33 495.556
1053.29 494.444
1055.26 467.667
1057.22 460.333
1059.18 446.222
1061.14 424.889
1063.11 408.667
1065.06 400
1067.03 382.556
1068.98 361
1070.94 364.222
1072.9 345.111
1074.86 339.111
1076.82 323.667
1078.77 308.444
1080.73 312.444
1082.69 303.889
1084.64 292.333
1086.59 289
1088.55 282.222
1090.5 264.667
1092.45 265.444
1094.41 270
1096.36 259.444
1098.31 255.778
1100.26 254.111
1102.21 250.444
1104.16 241.556
1106.11 239.667
1108.06 236.889
1110 232.111
1111.95 235.111
1113.9 224.889
1115.84 226
1117.79 222.444
1119.73 218.222
1121.68 211.778
1123.62 213.111
1125.57 209
1127.51 210.444
1129.45 206.667
1131.39 201.556
1133.33 200.222
1135.27 197.111
1137.21 194.889
1139.15 192.222
1141.09 193.556
1143.03 180.333
1144.97 181
1146.9 173.556
1148.84 184.222
1150.78 172.111
1152.71 173
1154.65 168.889
1156.58 171.667
1158.52 167.778
1160.45 165.556
1162.38 167.333
1164.31 162.778
1166.25 156
1168.18 163.889
1170.11 153.556
1172.04 157.889
1173.97 151
1175.9 151.333
1177.83 153.111
1179.75 153.778
1181.68 144.444
1183.61 146
1185.53 146.222
1187.46 146.778
1189.38 143.111
1191.31 146.444
1193.23 146.889
1195.16 140.889
1197.08 138.778
1199 142.333
1200.92 143.556
1202.84 145
1204.76 144.444
1206.68 138.556
1208.6 144.444
1210.52 140.889
1212.44 138.556
1214.36 135.667
1216.28 133.889
1218.19 136.889
1220.11 134.889
1222.03 138.778
1223.94 140.333
1225.86 139
1227.77 135.111
1229.68 130.556
1231.6 131.444
1233.51 128.111
1235.42 134.889
1237.33 133.556
1239.24 132.222
1241.15 127.778
1243.06 130.222
1244.97 132.556
1246.88 132.556
1248.79 128.111
1250.7 133.111
1252.6 133.556
1254.51 133.222
1256.42 132.778
1258.32 128.333
1260.23 121
1262.13 123.667
1264.04 132.444
1265.94 128.333
1267.84 128.667
1269.74 126.556
1271.64 131.222
1273.55 126.333
1275.45 130.444
1277.35 129.444
1279.25 124.889
1281.14 129.222
1283.04 127.667
1284.94 122.889
1286.84 126.444
1288.74 124.556
1290.63 124.333
1292.53 133.444
1294.42 130.111
1296.32 125.333
1298.21 124.556
1300.11 118.778
1302 121.111
1303.89 122.778
1305.78 120.333
1307.67 122.444
1309.57 120.111
1311.46 124.333
1313.34 121.111
1315.23 116.111
1317.12 118.222
1319.01 122
1320.9 118.556
1322.79 118.111
1324.67 114
1326.56 117
1328.45 118
1330.33 118.667
1332.21 114
1334.1 114.889
1335.98 115.889
1337.86 112.222
1339.75 114
1341.63 113.444
1343.51 118.889
1345.39 117.333
1347.27 118.222
1349.15 116.778
1351.03 118.333
1352.91 115
1354.79 115.333
1356.66 109.111
1358.54 120.778
1360.42 114.111
1362.29 116.667
1364.17 113.222
1366.04 122.111
1367.92 112.556
1369.79 115
1371.67 114.889
1373.54 115.111
1375.41 109.667
1377.28 113.444
1379.15 112
1381.03 107.111
1382.9 106.444
1384.76 103.556
1386.63 101.444
1388.5 107.333
1390.37 103.667
1392.24 102.444
1394.11 102
1395.97 101
1397.84 102.778
1399.7 98.7778
1401.57 99.4444
1403.43 99.1111
1405.3 93.4444
1407.16 96.8889
1409.02 95.7778
1410.89 92.5556
1412.75 90.4444
1414.61 95.1111
1416.47 91.3333
1418.33 91.3333
1420.19 87
1422.05 88
1423.91 88.5556
1425.77 84.5556
1427.62 82.5556
1429.48 87.6667
1431.34 90.4444
1433.19 85.1111
1435.05 82.4444
1436.9 80.2222
1438.76 87
1440.61 85.1111
1442.47 82.4444
1444.32 84.1111
1446.17 82.2222
1448.02 83.2222
1449.87 81.6667
1451.73 80.5556
1453.58 83.5556
1455.42 82.1111
1457.27 85.1111
1459.12 82.4444
1460.97 80.3333
1462.82 84.1111
1464.67 82.2222
1466.51 79.4445
1468.36 81.2222
1470.2 84.7778
1472.05 81.2222
1473.89 82.6667
1475.74 83.1111
1477.58 82.5556
1479.42 80.5556
1481.27 79.8889
1483.11 80.7778
1484.95 78.5556
1486.79 74.6667
1488.63 79.7778
1490.47 81.8889
1492.31 77
1494.15 83.7778
1495.99 76.5555
1497.83 78.4444
1499.66 79.8889
1501.5 82.7778
1503.34 78.5556
1505.17 83.3333
1507.01 81.2222
1508.84 82.8889
1510.68 79.5556
1512.51 82.8889
1514.35 80
1516.18 78.6667
1518.01 80.4445
1519.84 79.4444
1521.67 82.5556
1523.5 87.1111
1525.33 79.2222
1527.16 83.2222
1528.99 83.4444
1530.82 81.6667
1532.65 85.4444
1534.48 86.2222
1536.3 88
1538.13 82.3333
1539.96 84.1111
1541.78 81.6667
1543.61 85
1545.43 85.7778
1547.26 81.2222
1549.08 86.2222
1550.9 85.1111
1552.73 81.7778
1554.55 85.8889
1556.37 84.7778
1558.19 83.8889
1560.01 80.7778
1561.83 84.4444
1563.65 85.1111
1565.47 87.7778
1567.29 86.8889
1569.11 86.8889
1570.92 89.8889
1572.74 86.1111
1574.56 87
1576.37 85.3333
1578.19 88.4445
1580 86.6667
1581.82 86.1111
1583.63 81.6667
1585.45 86.7778
1587.26 83.6667
1589.07 85.6667
1590.88 85.4444
1592.69 83.3333
1594.51 87.5556
1596.32 84
1598.13 82.1111
1599.94 86.3333
1601.74 84
1603.55 86.5556
1605.36 87.1111
1607.17 84.4444
1608.97 83.1111
1610.78 91.1111
1612.59 87.7778
1614.39 82.3333
1616.2 81.7778
1618 83.6667
1619.81 82.8889
1621.61 81.6667
1623.41 82.5556
1625.21 81.3333
1627.02 80.4444
1628.82 80.3333
1630.62 79.6667
1632.42 76.8889
1634.22 80.5555
1636.02 78.2222
1637.82 79.2222
1639.61 79.1111
1641.41 79.5556
1643.21 82.1111
1645.01 78
1646.8 78.7778
1648.6 76.6667
1650.39 80.5556
1652.19 81.7778
1653.98 79.6667
1655.78 76.5556
1657.57 82.6667
1659.36 75.8889
1661.16 79.6667
1662.95 78.1111
1664.74 82.7778
1666.53 77.4444
1668.32 83.8889
1670.11 81.2222
1671.9 81.8889
1673.69 79.5556
1675.48 80.4444
1677.26 78.7778
1679.05 82.1111
1680.84 79.5556
1682.63 82.5556
1684.41 77.5556
1686.2 80.6667
1687.98 79
1689.77 80.1111
1691.55 76.7778
1693.33 79.5556
1695.12 81.3333
1696.9 75.3333
1698.68 83.3333
1700.46 83.3333
1702.24 80.6667
1704.02 79.4444
1705.8 80.1111
1707.58 75.2222
1709.36 77.7778
1711.14 76.2222
1712.92 78.3333
1714.7 74.8889
1716.47 70.8889
1718.25 74.5556
1720.03 73.6667
1721.8 78.2222
1723.58 77.1111
1725.35 72.3333
1727.13 74.3333
1728.9 77.3333
1730.67 76.3333
1732.44 72.3333
1734.22 74.6667
1735.99 74
1737.76 73.2222
1739.53 69.4444
1741.3 71.3333
1743.07 75.3333
1744.84 72
1746.61 71.6667
1748.38 71.5556
1750.14 67.2222
1751.91 73.1111
1753.68 66.7778
1755.44 68.3333
1757.21 73.1111
1758.98 67.1111
1760.74 71.2222
1762.5 68.8889
1764.27 70.2222
1766.03 73.1111
1767.79 71.6667
1769.56 66.2222
1771.32 74.1111
1773.08 69.4444
1774.84 62.8889
1776.6 68.6667
1778.36 65.4444
1780.12 67.2222
1781.88 68.8889
1783.64 72.2222
1785.4 70.6667
1787.15 70
1788.91 70.5556
1790.67 68.5556
1792.42 67.2222
1794.18 68.8889
1795.93 68.5556
1797.69 68.8889
1799.44 71.2222
1801.2 66.1111
1802.95 65.8889
1804.7 68.3333
1806.46 66.8889
1808.21 64.2222
1809.96 66.8889
1811.71 67.3333
1813.46 69.2222
1815.21 69.6667
1816.96 64.8889
1818.71 66.5556
1820.46 70
1822.2 63.1111
1823.95 67.3333
1825.7 63.8889
1827.44 65.2222
1829.19 67.2222
1830.94 66
1832.68 67
1834.42 67.2222
1836.17 66.8889
1837.91 65.4444
1839.66 65.1111
1841.4 66.1111
1843.14 68.8889
1844.88 69.2222
1846.62 64.8889
1848.36 69.4444
1850.1 69.1111
1851.84 65.4444
1853.58 69.2222
1855.32 68.1111
1857.06 63.6667
1858.8 65.5556
1860.54 67
1862.27 66.4444
1864.01 64.2222
1865.74 71.2222
1867.48 68
1869.22 68.6667
1870.95 64.8889
1872.68 64.2222
1874.42 64.1111
1876.15 66.6667
1877.88 64
1879.61 63.8889
1881.35 62.1111
1883.08 63
1884.81 64.8889
1886.54 60.8889
1888.27 65.4444
1890 63.5556
1891.73 61.3333
1893.45 64.7778
1895.18 63.5556
1896.91 64.2222
1898.64 63.3333
1900.36 62
1902.09 60.6667
1903.81 63.2222
1905.54 62.8889
1907.26 60.4444
1908.99 62.8889
1910.71 60.1111
1912.43 63.7778
1914.16 58.7778
1915.88 62.5556
1917.6 62.3333
1919.32 60.7778
1921.04 59.8889
1922.76 59.7778
1924.48 59.3333
1926.2 61.6667
1927.92 57
1929.64 57.1111
1931.36 58.1111
1933.08 58.7778
1934.79 58.5556
1936.51 58.5556
1938.23 57.8889
1939.94 57.8889
1941.66 58.3333
1943.37 58.6667
1945.08 61.2222
1946.8 57.2222
1948.51 58.1111
1950.22 55.8889
1951.94 54.2222
1953.65 53.8889
1955.36 56.7778
1957.07 55.2222
1958.78 56
1960.49 56.7778
1962.2 55.2222
1963.91 53.5556
1965.62 53.3333
1967.33 52.6667
1969.03 57.4444
1970.74 55
1972.45 52.8889
1974.15 50.5556
1975.86 53.3333
1977.56 55.4444
1979.27 53.5556
1980.97 55.3333
1982.68 50.4444
1984.38 52.4444
1986.08 54.2222
1987.79 52.8889
1989.49 50.5556
1991.19 49
1992.89 50
1994.59 56.1111
1996.29 55.4444
1997.99 53.7778
1999.69 52.5556
